File: data/0810A_2th_all.uxd
; (content of file \\Mai-b11e5c0abfd\d8\User\55373\0851539\0831\0810\0810A_2th_1.raw)
_FILEVERSION = 2
_SAMPLE =
_+SAMPLE =
_SITE = Taiwan
_USER = Administrator
_GONIOMETER_CODE = 20
_STAGE_CODE = 13
; Goniometer : D8 theta/2theta, stage : Unknown
_SAMPLE_CHANGER_CODE = 0
_ATTACHMENTS_CODE = 0
_GONIOMETER_RADIUS = 300
_FIXED_DIVSLIT = 0.6
_FIXED_SAMPLESLIT = 0
_FIXED_DETSLIT = 0.1
_MONOCHROMATOR = 0
; Incident beam monochromator : None
_THIN_FILM = N
_BETA_FILTER = N
_FIXED_ANTISLIT = 0.6
_ANALYZER_CODE = 0
; Received beam analyzer : None
_DATEMEASURED = "31-Aug-2021 18:20:17"
_WL_UNIT = A
_WL1 = 1.5406
_WL2 = 1.54439
_WL3 = 1.39222
_WLRATIO = 0.5
_ANODE = Cu

; Data for range 1
_DRIVE = COUPLED
_STEPTIME = 0.2
_STEPSIZE = 0.02
_STEPMODE = C
_START = 35
_THETA = 16.425
_2THETA = 35
_KHI = 0
_PHI = -178
_X = 0
_Y = 0
_Z = -0.1364
_DETECTOR = 1
; Detector type : Scintillation counter
_HV = 662
_GAIN = 80
_LLD = 0.545
_ULD = 1.917
_DETECTORSLIT = out
_AUX1 = 0
_AUX2 = 0
_AUX3 = 0
_TIMESTARTED = 16
_TEMP_RATE = -1
_TEMP_DELAY = -1
_KV = 40
_MA = 40
_RANGE_WL = 1.5406
_3DPLANE = 0
_V4_COUNTERS_MASK = 1
_V4_DRIVES_MASK = 0
_V4_ENCODERS_MASK = 0
_2THETACOUNTS = 1
; 2THETA  Cnt1_D1
  35.0000          3
  35.3000          5
  35.6000          3
  35.9000          5
  36.2000          5
  36.5000          2
  36.8000          5
  37.1000          6
  37.4000          4
  37.7000          4
  38.0000          6
  38.3000         21
  38.6000          4
  38.9000          2
  39.2000          3
  39.5000          3
  39.8000          3
  40.1000          6
  40.4000          2
  40.7000          4
  41.0000          2
  41.3000          1
  41.6000          3
  41.9000          3
  42.2000          3
  42.5000          1
  42.8000          1
  43.1000          1
  43.4000          3
  43.7000          4
  44.0000          5
  44.3000          2
  44.6000          3
  44.9000          2
  45.2000          4
  45.5000          3
  45.8000          3
  46.1000          7
  46.4000          0
  46.7000          2
  47.0000          0
  47.3000          2
  47.6000          3
  47.9000          3
  48.2000          1
  48.5000          2
  48.8000          1
  49.1000          3
  49.4000          0
  49.7000          2
  50.0000          1
  50.3000          5
  50.6000          2
  50.9000          7
  51.2000          2
  51.5000          0
  51.8000          3
  52.1000          3
  52.4000          2
  52.7000          0
  53.0000          1
  53.3000          1
  53.6000          1
  53.9000          0
  54.2000          2
  54.5000          2
  54.8000          2
  55.1000          0
  55.4000          9
  55.7000          1
  56.0000          1
  56.3000          2
  56.6000          2
  56.9000          1
  57.2000          2
  57.5000          2
  57.8000          2
  58.1000          3
  58.4000          1
  58.7000          1
  59.0000          3
  59.3000          3
  59.6000          3
  59.9000          1
  60.2000          0
  60.5000          3
  60.8000          4
  61.1000          1
  61.4000          3
  61.7000          4
  62.0000          1
  62.3000          0
  62.6000          1
  62.9000          2
  63.2000          3
  63.5000          3
  63.8000          2
  64.1000          6
  64.4000          3
  64.7000          2
  65.0000          4
  65.3000          4
  65.6000          2
  65.9000          1
  66.2000          4
  66.5000          3
  66.8000          2
  67.1000          4
  67.4000          3
  67.7000          1
  68.0000          3
  68.3000          1
  68.6000          0
  68.9000          4
  69.2000          5
  69.5000          7
  69.8000          3
  70.1000          1
  70.4000          3
  70.7000          0
  71.0000          2
  71.3000          3
  71.6000          1
  71.9000          3
  72.2000          2
  72.5000          1
  72.8000          2
  73.1000          2
  73.4000          0
  73.7000          1
  74.0000          4
  74.3000          2
  74.6000          1
  74.9000          1
  75.2000          2
  75.5000          0
  75.8000          1
  76.1000          1
  76.4000          1
  76.7000          1
  77.0000          5
  77.3000          2
  77.6000          1
  77.9000          7
  78.2000          5
  78.5000          4
  78.8000          2
  79.1000          2
  79.4000          2
  79.7000          5
  80.0000          6
  80.3000          2
  80.6000          5
  80.9000          2
  81.2000          2
  81.5000          3
  81.8000          1
  82.1000          3
  82.4000          2
  82.7000          3
  83.0000          2
  83.3000          0
  83.6000          2
  83.9000          1
  84.2000          3
  84.5000          4
  84.8000          2
  85.1000          1
  85.4000          3
  85.7000          1
  86.0000          5
  86.3000          0
  86.6000          1
  86.9000          0
  87.2000          2
  87.5000          2
  87.8000          0
  88.1000          3
  88.4000          2
  88.7000          1
  89.0000          2
  89.3000          1
  89.6000          0
  89.9000          3
  90.2000          1
  90.5000          3
  90.8000          5
  91.1000          3
  91.4000          4
  91.7000          0
  92.0000          0
  92.3000          2
  92.6000          0
  92.9000          2
  93.2000          3
  93.5000          1
  93.8000          3
  94.1000          0
  94.4000          2
  94.7000          2
  95.0000          4
  95.3000          1
  95.6000          1
  95.9000          2
  96.2000          3
  96.5000          1
  96.8000          1
  97.1000          1
  97.4000          1
  97.7000          2
  98.0000          5
  98.3000          1
  98.6000          0
  98.9000          3
  99.2000          4
  99.5000          2
  99.8000          6
 100.1000          4
 100.4000          3
 100.7000          1
 101.0000          4
 101.3000          0
 101.6000          0
 101.9000          3
 102.2000          1
 102.5000          2
 102.8000          6
 103.1000          2
 103.4000          1
 103.7000          0
 104.0000          5
 104.3000          3
 104.6000          3
 104.9000          4
 105.2000          1
 105.5000          2
 105.8000          1
 106.1000          0
 106.4000          3
 106.7000          7
 107.0000          4
 107.3000          3
 107.6000          2
 107.9000          7
 108.2000          1
 108.5000          5
 108.8000          5
 109.1000          4
 109.4000          3
 109.7000          6
 110.0000          5
 110.3000          1
 110.6000          3
 110.9000          4
 111.2000          9
 111.5000          1
 111.8000          7
 112.1000          3
 112.4000          5
 112.7000          5
 113.0000          5
 113.3000         22
 113.6000         25
 113.9000         32
 114.2000         34
 114.5000         39
 114.8000         44
 115.1000         45
 115.4000         64
 115.7000         56
 116.0000         71
 116.3000         86
 116.6000         93
 116.9000        106
 117.2000        108
 117.5000        137
 117.8000        165
 118.1000        228
 118.4000        484
 118.7000       1282
 119.0000       1411
 119.3000       8071
 119.6000      40485
 119.9000      28207
 120.2000       4870
 120.5000       1138
 120.8000        592
 121.1000        383
 121.4000        248
 121.7000        247
 122.0000        198