File: data/0810B_2th_all.uxd
; (content of file \\Mai-b11e5c0abfd\d8\User\55373\0851539\0901\0810B_2th_all.raw)
_FILEVERSION = 2
_SAMPLE =
_+SAMPLE =
_SITE = Taiwan
_USER = Administrator
_GONIOMETER_CODE = 20
_STAGE_CODE = 13
; Goniometer : D8 theta/2theta, stage : Unknown
_SAMPLE_CHANGER_CODE = 0
_ATTACHMENTS_CODE = 0
_GONIOMETER_RADIUS = 300
_FIXED_DIVSLIT = 0.6
_FIXED_SAMPLESLIT = 0
_FIXED_DETSLIT = 0.1
_MONOCHROMATOR = 0
; Incident beam monochromator : None
_THIN_FILM = N
_BETA_FILTER = N
_FIXED_ANTISLIT = 0.6
_ANALYZER_CODE = 0
; Received beam analyzer : None
_DATEMEASURED = "01-Sep-2021 11:37:23"
_WL_UNIT = A
_WL1 = 1.5406
_WL2 = 1.54439
_WL3 = 1.39222
_WLRATIO = 0.5
_ANODE = Cu

; Data for range 1
_DRIVE = COUPLED
_STEPTIME = 0.2
_STEPSIZE = 0.02
_STEPMODE = C
_START = 34
_THETA = 16.3155
_2THETA = 34
_KHI = 0
_PHI = 5.5
_X = 0
_Y = 0
_Z = -0.1794
_DETECTOR = 1
; Detector type : Scintillation counter
_HV = 662
_GAIN = 80
_LLD = 0.545
_ULD = 1.917
_DETECTORSLIT = out
_AUX1 = 0
_AUX2 = 0
_AUX3 = 0
_TIMESTARTED = 16
_TEMP_RATE = -1
_TEMP_DELAY = -1
_KV = 40
_MA = 40
_RANGE_WL = 1.5406
_3DPLANE = 0
_V4_COUNTERS_MASK = 1
_V4_DRIVES_MASK = 0
_V4_ENCODERS_MASK = 0
_2THETACOUNTS = 1
; 2THETA  Cnt1_D1
  34.0000          3
  34.3000          3
  34.6000          2
  34.9000          4
  35.2000          3
  35.5000          4
  35.8000          4
  36.1000          1
  36.4000          3
  36.7000          3
  37.0000          2
  37.3000          2
  37.6000          2
  37.9000          7
  38.2000         21
  38.5000          8
  38.8000          1
  39.1000          5
  39.4000          6
  39.7000          4
  40.0000          3
  40.3000          2
  40.6000          0
  40.9000          0
  41.2000          7
  41.5000          4
  41.8000          2
  42.1000          3
  42.4000          4
  42.7000          4
  43.0000          3
  43.3000          1
  43.6000          3
  43.9000          7
  44.2000          6
  44.5000          3
  44.8000          6
  45.1000          3
  45.4000          2
  45.7000          4
  46.0000          2
  46.3000          1
  46.6000          1
  46.9000          1
  47.2000          1
  47.5000          3
  47.8000          3
  48.1000          3
  48.4000          1
  48.7000          1
  49.0000          2
  49.3000          1
  49.6000          3
  49.9000          2
  50.2000          3
  50.5000          2
  50.8000          1
  51.1000          2
  51.4000          0
  51.7000          3
  52.0000          4
  52.3000          1
  52.6000          1
  52.9000          1
  53.2000          2
  53.5000          1
  53.8000          1
  54.1000          3
  54.4000          0
  54.7000          1
  55.0000          2
  55.3000          3
  55.6000          3
  55.9000          0
  56.2000          5
  56.5000          2
  56.8000          2
  57.1000          5
  57.4000          1
  57.7000          0
  58.0000          1
  58.3000          1
  58.6000          3
  58.9000          4
  59.2000          0
  59.5000          4
  59.8000          0
  60.1000          3
  60.4000          1
  60.7000          4
  61.0000          6
  61.3000          1
  61.6000          3
  61.9000          3
  62.2000          3
  62.5000          5
  62.8000          4
  63.1000          2
  63.4000          3
  63.7000          4
  64.0000          2
  64.3000          1
  64.6000          3
  64.9000          1
  65.2000          1
  65.5000          2
  65.8000          0
  66.1000          3
  66.4000          2
  66.7000          1
  67.0000          1
  67.3000          3
  67.6000          1
  67.9000          0
  68.2000          1
  68.5000          0
  68.8000          1
  69.1000          3
  69.4000          0
  69.7000          1
  70.0000          3
  70.3000          1
  70.6000          3
  70.9000          4
  71.2000          4
  71.5000          1
  71.8000          3
  72.1000          0
  72.4000          3
  72.7000          2
  73.0000          4
  73.3000          1
  73.6000          2
  73.9000          1
  74.2000          1
  74.5000          0
  74.8000          1
  75.1000          3
  75.4000          2
  75.7000          4
  76.0000          1
  76.3000          0
  76.6000          4
  76.9000          2
  77.2000          5
  77.5000          3
  77.8000          4
  78.1000          7
  78.4000          1
  78.7000          2
  79.0000          2
  79.3000          1
  79.6000          3
  79.9000          2
  80.2000          2
  80.5000          1
  80.8000          1
  81.1000          2
  81.4000          1
  81.7000          0
  82.0000          1
  82.3000          1
  82.6000          4
  82.9000          1
  83.2000          1
  83.5000          3
  83.8000          2
  84.1000          1
  84.4000          1
  84.7000          1
  85.0000          1
  85.3000          1
  85.6000          6
  85.9000          1
  86.2000          2
  86.5000          2
  86.8000          2
  87.1000          2
  87.4000          2
  87.7000          4
  88.0000          2
  88.3000          3
  88.6000          1
  88.9000          1
  89.2000          2
  89.5000          2
  89.8000          1
  90.1000          1
  90.4000          2
  90.7000          2
  91.0000          3
  91.3000          1
  91.6000          2
  91.9000          0
  92.2000          1
  92.5000          1
  92.8000          1
  93.1000          3
  93.4000          1
  93.7000          0
  94.0000          1
  94.3000          3
  94.6000          5
  94.9000          3
  95.2000          1
  95.5000          2
  95.8000          1
  96.1000          1
  96.4000          3
  96.7000          2
  97.0000          2
  97.3000          1
  97.6000          2
  97.9000          1
  98.2000          2
  98.5000          4
  98.8000          1
  99.1000          3
  99.4000          7
  99.7000          1
 100.0000          1
 100.3000          2
 100.6000          3
 100.9000          2
 101.2000          1
 101.5000          3
 101.8000          1
 102.1000          2
 102.4000          3
 102.7000          9
 103.0000          3
 103.3000          1
 103.6000          1
 103.9000          6
 104.2000          2
 104.5000          4
 104.8000          2
 105.1000          3
 105.4000          2
 105.7000          4
 106.0000          4
 106.3000          2
 106.6000          2
 106.9000          4
 107.2000          3
 107.5000          0
 107.8000          2
 108.1000          1
 108.4000          4
 108.7000          1
 109.0000          4
 109.3000          1
 109.6000          2
 109.9000          3
 110.2000          2
 110.5000          4
 110.8000          4
 111.1000          6
 111.4000          3
 111.7000          3
 112.0000          4
 112.3000          6
 112.6000          3
 112.9000          6
 113.2000         10
 113.5000         10
 113.8000          9
 114.1000         14
 114.4000         18
 114.7000         14
 115.0000         17
 115.3000         22
 115.6000         19
 115.9000         30
 116.2000         30
 116.5000         39
 116.8000         41
 117.1000         44
 117.4000         56
 117.7000         88
 118.0000         91
 118.3000        146
 118.6000        335
 118.9000        466
 119.2000       1308
 119.5000      66212
 119.8000       3600
 120.1000      13757
 120.4000        739
 120.7000        367
 121.0000        217
 121.3000        153
 121.6000        117
 121.9000        109
 122.0000         93