File: data/0810B_RC_13_23.uxd
; (content of file \\Mai-b11e5c0abfd\d8\User\55373\0851539\0901\0810B_RC_13_23.raw)
_FILEVERSION = 2
_SAMPLE =
_+SAMPLE =
_SITE = Taiwan
_USER = Administrator
_GONIOMETER_CODE = 20
_STAGE_CODE = 13
; Goniometer : D8 theta/2theta, stage : Unknown
_SAMPLE_CHANGER_CODE = 0
_ATTACHMENTS_CODE = 0
_GONIOMETER_RADIUS = 300
_FIXED_DIVSLIT = 0.6
_FIXED_SAMPLESLIT = 0
_FIXED_DETSLIT = 0.1
_MONOCHROMATOR = 0
; Incident beam monochromator : None
_THIN_FILM = N
_BETA_FILTER = N
_FIXED_ANTISLIT = 0.6
_ANALYZER_CODE = 0
; Received beam analyzer : None
_DATEMEASURED = "01-Sep-2021 11:54:04"
_WL_UNIT = A
_WL1 = 1.5406
_WL2 = 1.54439
_WL3 = 1.39222
_WLRATIO = 0.5
_ANODE = Cu

; Data for range 1
_DRIVE = THETA
_STEPTIME = 0.2
_STEPSIZE = 0.02
_STEPMODE = S
_START = 13
_THETA = 13
_2THETA = 38.1992
_KHI = 0
_PHI = 5.5
_X = 0
_Y = 0
_Z = -0.1794
_DETECTOR = 1
; Detector type : Scintillation counter
_HV = 662
_GAIN = 80
_LLD = 0.545
_ULD = 1.917
_DETECTORSLIT = out
_AUX1 = 0
_AUX2 = 0
_AUX3 = 0
_TIMESTARTED = 17
_TEMP_RATE = -1
_TEMP_DELAY = -1
_KV = 40
_MA = 40
_RANGE_WL = 1.5406
_3DPLANE = 0
_V4_COUNTERS_MASK = 1
_V4_DRIVES_MASK = 0
_V4_ENCODERS_MASK = 0
_2THETACOUNTS = 1
; THETA  Cnt1_D1
  13.0000         15
  13.0400         11
  13.0800         10
  13.1200          8
  13.1600         14
  13.2000         12
  13.2400         15
  13.2800         11
  13.3200         12
  13.3600         13
  13.4000         12
  13.4400         11
  13.4800          8
  13.5200         16
  13.5600         17
  13.6000         11
  13.6400         12
  13.6800         13
  13.7200          9
  13.7600          7
  13.8000          6
  13.8400          9
  13.8800         11
  13.9200          9
  13.9600         10
  14.0000         11
  14.0400         18
  14.0800         17
  14.1200          6
  14.1600          6
  14.2000          8
  14.2400         10
  14.2800         11
  14.3200         14
  14.3600         12
  14.4000          7
  14.4400         15
  14.4800         14
  14.5200         18
  14.5600         15
  14.6000          6
  14.6400         11
  14.6800          9
  14.7200         13
  14.7600         13
  14.8000         11
  14.8400          8
  14.8800         15
  14.9200          8
  14.9600          9
  15.0000         11
  15.0400         12
  15.0800         14
  15.1200         11
  15.1600          9
  15.2000         15
  15.2400          2
  15.2800         14
  15.3200         10
  15.3600         13
  15.4000         13
  15.4400          9
  15.4800         10
  15.5200         10
  15.5600         12
  15.6000         13
  15.6400          5
  15.6800          8
  15.7200          8
  15.7600         12
  15.8000         10
  15.8400         14
  15.8800          8
  15.9200         12
  15.9600         13
  16.0000          9
  16.0400         12
  16.0800         12
  16.1200         14
  16.1600         12
  16.2000          8
  16.2400          7
  16.2800         13
  16.3200         14
  16.3600         11
  16.4000          7
  16.4400         18
  16.4800         12
  16.5200         12
  16.5600         11
  16.6000          9
  16.6400         12
  16.6800         16
  16.7200         11
  16.7600         14
  16.8000         15
  16.8400         10
  16.8800         17
  16.9200          9
  16.9600          6
  17.0000         14
  17.0400         15
  17.0800          8
  17.1200         13
  17.1600          7
  17.2000          9
  17.2400         10
  17.2800         13
  17.3200         12
  17.3600          9
  17.4000         10
  17.4400         17
  17.4800         10
  17.5200          8
  17.5600         15
  17.6000          7
  17.6400         15
  17.6800         12
  17.7200          8
  17.7600         14
  17.8000          8
  17.8400         13
  17.8800         12
  17.9200         14
  17.9600          9
  18.0000         12
  18.0400         17
  18.0800         11
  18.1200         11
  18.1600         15
  18.2000          7
  18.2400         17
  18.2800          6
  18.3200         12
  18.3600         10
  18.4000         18
  18.4400          7
  18.4800         12
  18.5200         18
  18.5600         12
  18.6000          8
  18.6400         11
  18.6800          9
  18.7200         14
  18.7600          8
  18.8000          7
  18.8400          7
  18.8800         13
  18.9200         14
  18.9600          7
  19.0000         18
  19.0400         19
  19.0800         16
  19.1200         11
  19.1600         14
  19.2000         10
  19.2400         13
  19.2800         10
  19.3200         13
  19.3600          3
  19.4000         17
  19.4400         12
  19.4800          7
  19.5200          9
  19.5600         11
  19.6000         15
  19.6400         11
  19.6800         15
  19.7200          8
  19.7600         15
  19.8000          9
  19.8400          8
  19.8800          4
  19.9200         13
  19.9600          6
  20.0000          6
  20.0400         10
  20.0800         15
  20.1200         14
  20.1600          9
  20.2000         15
  20.2400          7
  20.2800         11
  20.3200         15
  20.3600         13
  20.4000          9
  20.4400         14
  20.4800         12
  20.5200         12
  20.5600          8
  20.6000         10
  20.6400         13
  20.6800         10
  20.7200         16
  20.7600         12
  20.8000          4
  20.8400          7
  20.8800         11
  20.9200         10
  20.9600          8
  21.0000         20
  21.0400          9
  21.0800         14
  21.1200          8
  21.1600         11
  21.2000         11
  21.2400         11
  21.2800          7
  21.3200         13
  21.3600         11
  21.4000         12
  21.4400         10
  21.4800          8
  21.5200         10
  21.5600         10
  21.6000         24
  21.6400          9
  21.6800         12
  21.7200          8
  21.7600         16
  21.8000         16
  21.8400          7
  21.8800         16
  21.9200         13
  21.9600         18
  22.0000         12
  22.0400         17
  22.0800         13
  22.1200         10
  22.1600          7
  22.2000          8
  22.2400         14
  22.2800         10
  22.3200         10
  22.3600         12
  22.4000          5
  22.4400         11
  22.4800         13
  22.5200         10
  22.5600         12
  22.6000          9
  22.6400          8
  22.6800         12
  22.7200          7
  22.7600         11
  22.8000          5
  22.8400         14
  22.8800          6
  22.9200         12
  22.9600          8
  23.0000         12