File: data/0810A_RC_15_23.uxd
; (content of file \\Mai-b11e5c0abfd\d8\User\55373\0851539\0831\0810\0810A_RC_38_1.raw)
_FILEVERSION = 2
_SAMPLE =
_+SAMPLE =
_SITE = Taiwan
_USER = Administrator
_GONIOMETER_CODE = 20
_STAGE_CODE = 13
; Goniometer : D8 theta/2theta, stage : Unknown
_SAMPLE_CHANGER_CODE = 0
_ATTACHMENTS_CODE = 0
_GONIOMETER_RADIUS = 300
_FIXED_DIVSLIT = 0.6
_FIXED_SAMPLESLIT = 0
_FIXED_DETSLIT = 0.1
_MONOCHROMATOR = 0
; Incident beam monochromator : None
_THIN_FILM = N
_BETA_FILTER = N
_FIXED_ANTISLIT = 0.6
_ANALYZER_CODE = 0
; Received beam analyzer : None
_DATEMEASURED = "31-Aug-2021 18:36:26"
_WL_UNIT = A
_WL1 = 1.5406
_WL2 = 1.54439
_WL3 = 1.39222
_WLRATIO = 0.5
_ANODE = Cu

; Data for range 1
_DRIVE = THETA
_STEPTIME = 0.2
_STEPSIZE = 0.02
_STEPMODE = S
_START = 14
_THETA = 14
_2THETA = 38.297
_KHI = 0
_PHI = -178
_X = 0
_Y = 0
_Z = -0.1364
_DETECTOR = 1
; Detector type : Scintillation counter
_HV = 662
_GAIN = 80
_LLD = 0.545
_ULD = 1.917
_DETECTORSLIT = out
_AUX1 = 0
_AUX2 = 0
_AUX3 = 0
_TIMESTARTED = 17
_TEMP_RATE = -1
_TEMP_DELAY = -1
_KV = 40
_MA = 40
_RANGE_WL = 1.5406
_3DPLANE = 0
_V4_COUNTERS_MASK = 1
_V4_DRIVES_MASK = 0
_V4_ENCODERS_MASK = 0
_2THETACOUNTS = 1
; THETA  Cnt1_D1
  14.0000         16
  14.0400         16
  14.0800         14
  14.1200          6
  14.1600          8
  14.2000         11
  14.2400         14
  14.2800         14
  14.3200         18
  14.3600         13
  14.4000         11
  14.4400         15
  14.4800         13
  14.5200         11
  14.5600         17
  14.6000          8
  14.6400         11
  14.6800         19
  14.7200         10
  14.7600         16
  14.8000         13
  14.8400         12
  14.8800          6
  14.9200         16
  14.9600          8
  15.0000         17
  15.0400         14
  15.0800          6
  15.1200         11
  15.1600          9
  15.2000          8
  15.2400         14
  15.2800         11
  15.3200         16
  15.3600         19
  15.4000          9
  15.4400         16
  15.4800         17
  15.5200         12
  15.5600         12
  15.6000          9
  15.6400         16
  15.6800          9
  15.7200          8
  15.7600          6
  15.8000         10
  15.8400         11
  15.8800         11
  15.9200          7
  15.9600         12
  16.0000         12
  16.0400         16
  16.0800         16
  16.1200         15
  16.1600         11
  16.2000          9
  16.2400         11
  16.2800         16
  16.3200          7
  16.3600          9
  16.4000         14
  16.4400          8
  16.4800         18
  16.5200         12
  16.5600         13
  16.6000         11
  16.6400         14
  16.6800          8
  16.7200         10
  16.7600         11
  16.8000         14
  16.8400          9
  16.8800          8
  16.9200         16
  16.9600         12
  17.0000         12
  17.0400         14
  17.0800         10
  17.1200         12
  17.1600         10
  17.2000         13
  17.2400         16
  17.2800         15
  17.3200          8
  17.3600         14
  17.4000         12
  17.4400          6
  17.4800         13
  17.5200         13
  17.5600         17
  17.6000         15
  17.6400          8
  17.6800         13
  17.7200         14
  17.7600          9
  17.8000         10
  17.8400          6
  17.8800         13
  17.9200         11
  17.9600         10
  18.0000         12
  18.0400         10
  18.0800         11
  18.1200         14
  18.1600          9
  18.2000          7
  18.2400          5
  18.2800         15
  18.3200         10
  18.3600         17
  18.4000         12
  18.4400         12
  18.4800         12
  18.5200          9
  18.5600         22
  18.6000         10
  18.6400         15
  18.6800         12
  18.7200         18
  18.7600         19
  18.8000          8
  18.8400         10
  18.8800         12
  18.9200         15
  18.9600         15
  19.0000          7
  19.0400         10
  19.0800         10
  19.1200          9
  19.1600         17
  19.2000         16
  19.2400         11
  19.2800         17
  19.3200         13
  19.3600          5
  19.4000         11
  19.4400          4
  19.4800         12
  19.5200         16
  19.5600         11
  19.6000          8
  19.6400         14
  19.6800         16
  19.7200          8
  19.7600          6
  19.8000         14
  19.8400          9
  19.8800         13
  19.9200         13
  19.9600         14
  20.0000          9
  20.0400         12
  20.0800          7
  20.1200          7
  20.1600         10
  20.2000          6
  20.2400          7
  20.2800          9
  20.3200          8
  20.3600         12
  20.4000         16
  20.4400         15
  20.4800         13
  20.5200          6
  20.5600         11
  20.6000         11
  20.6400         13
  20.6800         16
  20.7200         13
  20.7600         11
  20.8000         10
  20.8400          9
  20.8800          9
  20.9200          8
  20.9600         11
  21.0000         18
  21.0400         11
  21.0800         10
  21.1200         11
  21.1600         21
  21.2000         10
  21.2400         10
  21.2800         10
  21.3200         13
  21.3600          4
  21.4000          7
  21.4400         11
  21.4800         12
  21.5200         19
  21.5600         14
  21.6000         15
  21.6400         12
  21.6800         15
  21.7200         14
  21.7600         18
  21.8000         17
  21.8400         14
  21.8800         19
  21.9200          8
  21.9600         20
  22.0000          7