File: data/0811B_2th_all.uxd
; (content of file \\Mai-b11e5c0abfd\d8\User\55373\0851539\0831\0811\0811B_2th_1.raw)
_FILEVERSION = 2
_SAMPLE =
_+SAMPLE =
_SITE = Taiwan
_USER = Administrator
_GONIOMETER_CODE = 20
_STAGE_CODE = 13
; Goniometer : D8 theta/2theta, stage : Unknown
_SAMPLE_CHANGER_CODE = 0
_ATTACHMENTS_CODE = 0
_GONIOMETER_RADIUS = 300
_FIXED_DIVSLIT = 0.6
_FIXED_SAMPLESLIT = 0
_FIXED_DETSLIT = 0.1
_MONOCHROMATOR = 0
; Incident beam monochromator : None
_THIN_FILM = N
_BETA_FILTER = N
_FIXED_ANTISLIT = 0.6
_ANALYZER_CODE = 0
; Received beam analyzer : None
_DATEMEASURED = "31-Aug-2021 19:57:53"
_WL_UNIT = A
_WL1 = 1.5406
_WL2 = 1.54439
_WL3 = 1.39222
_WLRATIO = 0.5
_ANODE = Cu

; Data for range 1
_DRIVE = COUPLED
_STEPTIME = 0.2
_STEPSIZE = 0.02
_STEPMODE = C
_START = 34
_THETA = 14.494
_2THETA = 34
_KHI = 0
_PHI = -83.5
_X = 0
_Y = 0
_Z = 0.0073
_DETECTOR = 1
; Detector type : Scintillation counter
_HV = 662
_GAIN = 80
_LLD = 0.545
_ULD = 1.917
_DETECTORSLIT = out
_AUX1 = 0
_AUX2 = 0
_AUX3 = 0
_TIMESTARTED = 17
_TEMP_RATE = -1
_TEMP_DELAY = -1
_KV = 40
_MA = 40
_RANGE_WL = 1.5406
_3DPLANE = 0
_V4_COUNTERS_MASK = 1
_V4_DRIVES_MASK = 0
_V4_ENCODERS_MASK = 0
_2THETACOUNTS = 1
; 2THETA  Cnt1_D1
  34.0000          6
  34.3000          1
  34.6000          5
  34.9000          3
  35.2000          4
  35.5000          1
  35.8000          4
  36.1000          4
  36.4000          1
  36.7000          3
  37.0000          5
  37.3000          3
  37.6000          2
  37.9000          7
  38.2000          5
  38.5000          4
  38.8000          7
  39.1000          6
  39.4000          6
  39.7000          4
  40.0000          6
  40.3000          6
  40.6000          5
  40.9000          3
  41.2000          2
  41.5000          4
  41.8000          6
  42.1000          4
  42.4000          6
  42.7000          4
  43.0000          3
  43.3000          2
  43.6000          2
  43.9000          4
  44.2000          6
  44.5000          7
  44.8000          5
  45.1000          3
  45.4000          2
  45.7000          3
  46.0000          3
  46.3000          6
  46.6000          4
  46.9000          3
  47.2000          4
  47.5000          4
  47.8000          4
  48.1000          3
  48.4000          4
  48.7000          0
  49.0000          3
  49.3000          2
  49.6000          7
  49.9000          1
  50.2000          3
  50.5000          4
  50.8000          1
  51.1000          2
  51.4000          6
  51.7000          2
  52.0000          1
  52.3000          4
  52.6000          1
  52.9000          3
  53.2000          0
  53.5000          4
  53.8000          5
  54.1000          0
  54.4000          2
  54.7000          1
  55.0000          3
  55.3000          0
  55.6000          4
  55.9000          3
  56.2000          0
  56.5000          3
  56.8000          0
  57.1000          2
  57.4000          4
  57.7000          0
  58.0000          1
  58.3000          4
  58.6000          5
  58.9000          3
  59.2000          1
  59.5000          1
  59.8000          2
  60.1000          4
  60.4000          2
  60.7000          4
  61.0000          7
  61.3000          2
  61.6000          3
  61.9000          1
  62.2000          5
  62.5000          2
  62.8000          2
  63.1000          4
  63.4000          2
  63.7000          2
  64.0000          3
  64.3000          3
  64.6000          2
  64.9000          5
  65.2000          4
  65.5000          2
  65.8000          3
  66.1000          3
  66.4000          4
  66.7000          2
  67.0000          2
  67.3000          2
  67.6000          3
  67.9000          2
  68.2000          3
  68.5000          3
  68.8000          1
  69.1000          2
  69.4000          0
  69.7000          1
  70.0000          6
  70.3000          0
  70.6000          1
  70.9000          3
  71.2000          3
  71.5000          3
  71.8000          1
  72.1000          0
  72.4000          4
  72.7000          0
  73.0000          6
  73.3000          2
  73.6000          1
  73.9000          2
  74.2000          2
  74.5000          2
  74.8000          1
  75.1000          2
  75.4000          2
  75.7000          2
  76.0000          1
  76.3000          3
  76.6000          1
  76.9000          5
  77.2000          5
  77.5000          2
  77.8000          5
  78.1000          5
  78.4000          2
  78.7000          3
  79.0000          3
  79.3000          3
  79.6000          6
  79.9000          3
  80.2000          1
  80.5000          3
  80.8000          2
  81.1000          1
  81.4000          2
  81.7000          2
  82.0000          2
  82.3000          1
  82.6000          0
  82.9000          2
  83.2000          4
  83.5000          2
  83.8000          0
  84.1000          4
  84.4000          2
  84.7000          4
  85.0000          4
  85.3000          2
  85.6000          3
  85.9000          3
  86.2000          3
  86.5000          2
  86.8000          2
  87.1000          0
  87.4000          2
  87.7000          2
  88.0000          1
  88.3000          0
  88.6000          2
  88.9000          2
  89.2000          2
  89.5000          1
  89.8000          3
  90.1000          2
  90.4000          3
  90.7000          3
  91.0000          0
  91.3000          0
  91.6000          3
  91.9000          2
  92.2000          2
  92.5000          2
  92.8000          0
  93.1000          5
  93.4000          2
  93.7000          1
  94.0000          2
  94.3000          1
  94.6000          2
  94.9000          1
  95.2000          1
  95.5000          2
  95.8000          3
  96.1000          1
  96.4000          3
  96.7000          3
  97.0000          3
  97.3000          3
  97.6000          2
  97.9000          2
  98.2000          0
  98.5000          2
  98.8000          2
  99.1000          2
  99.4000          1
  99.7000          2
 100.0000          2
 100.3000          1
 100.6000          1
 100.9000          1
 101.2000          1
 101.5000          5
 101.8000          3
 102.1000          0
 102.4000          1
 102.7000          4
 103.0000          1
 103.3000          2
 103.6000          4
 103.9000          1
 104.2000          2
 104.5000          1
 104.8000          1
 105.1000          4
 105.4000          4
 105.7000          1
 106.0000          2
 106.3000          4
 106.6000          3
 106.9000          0
 107.2000          4
 107.5000          2
 107.8000          2
 108.1000          3
 108.4000          5
 108.7000          4
 109.0000          3
 109.3000          1
 109.6000          3
 109.9000          5
 110.2000          1
 110.5000          3
 110.8000          1
 111.1000          2
 111.4000          7
 111.7000          4
 112.0000          5
 112.3000          3
 112.6000          5
 112.9000          3
 113.2000          4
 113.5000          5
 113.8000          8
 114.1000          5
 114.4000         10
 114.7000         14
 115.0000          6
 115.3000         10
 115.6000         17
 115.9000         15
 116.2000         25
 116.5000         23
 116.8000         23
 117.1000         29
 117.4000         25
 117.7000         48
 118.0000         72
 118.3000         97
 118.6000        306
 118.9000        339
 119.2000       1554
 119.5000      17976
 119.8000       4731
 120.1000       1886
 120.4000        329
 120.7000        158
 121.0000        115
 121.3000         98
 121.6000         74
 121.9000         57
 122.0000         70