File: data/0811A_RC_15_25.uxd
; (content of file \\Mai-b11e5c0abfd\d8\User\55373\0851539\0831\0811\0811A_RC_38_1.raw)
_FILEVERSION = 2
_SAMPLE =
_+SAMPLE =
_SITE = Taiwan
_USER = Administrator
_GONIOMETER_CODE = 20
_STAGE_CODE = 13
; Goniometer : D8 theta/2theta, stage : Unknown
_SAMPLE_CHANGER_CODE = 0
_ATTACHMENTS_CODE = 0
_GONIOMETER_RADIUS = 300
_FIXED_DIVSLIT = 0.6
_FIXED_SAMPLESLIT = 0
_FIXED_DETSLIT = 0.1
_MONOCHROMATOR = 0
; Incident beam monochromator : None
_THIN_FILM = N
_BETA_FILTER = N
_FIXED_ANTISLIT = 0.6
_ANALYZER_CODE = 0
; Received beam analyzer : None
_DATEMEASURED = "31-Aug-2021 19:42:50"
_WL_UNIT = A
_WL1 = 1.5406
_WL2 = 1.54439
_WL3 = 1.39222
_WLRATIO = 0.5
_ANODE = Cu

; Data for range 1
_DRIVE = THETA
_STEPTIME = 0.2
_STEPSIZE = 0.02
_STEPMODE = S
_START = 15
_THETA = 15
_2THETA = 38.2033
_KHI = 0
_PHI = -177
_X = 0
_Y = 0
_Z = -0.0713
_DETECTOR = 1
; Detector type : Scintillation counter
_HV = 662
_GAIN = 80
_LLD = 0.545
_ULD = 1.917
_DETECTORSLIT = out
_AUX1 = 0
_AUX2 = 0
_AUX3 = 0
_TIMESTARTED = 17
_TEMP_RATE = -1
_TEMP_DELAY = -1
_KV = 40
_MA = 40
_RANGE_WL = 1.5406
_3DPLANE = 0
_V4_COUNTERS_MASK = 1
_V4_DRIVES_MASK = 0
_V4_ENCODERS_MASK = 0
_2THETACOUNTS = 1
; THETA  Cnt1_D1
  15.0000         13
  15.0400          9
  15.0800         11
  15.1200         15
  15.1600         14
  15.2000         14
  15.2400         20
  15.2800         20
  15.3200         14
  15.3600         11
  15.4000         12
  15.4400         12
  15.4800         14
  15.5200         22
  15.5600         18
  15.6000         21
  15.6400         18
  15.6800         21
  15.7200         15
  15.7600         16
  15.8000          9
  15.8400         14
  15.8800         13
  15.9200         15
  15.9600         13
  16.0000         15
  16.0400         12
  16.0800         14
  16.1200         13
  16.1600         11
  16.2000         12
  16.2400         14
  16.2800         22
  16.3200         12
  16.3600         13
  16.4000         22
  16.4400         27
  16.4800         16
  16.5200         17
  16.5600          6
  16.6000         24
  16.6400         12
  16.6800         13
  16.7200         30
  16.7600         27
  16.8000         16
  16.8400         18
  16.8800         14
  16.9200         12
  16.9600         19
  17.0000         11
  17.0400         13
  17.0800         15
  17.1200         18
  17.1600         17
  17.2000         19
  17.2400         22
  17.2800         17
  17.3200         14
  17.3600         10
  17.4000         18
  17.4400         16
  17.4800         13
  17.5200         20
  17.5600         14
  17.6000         20
  17.6400          9
  17.6800         16
  17.7200         18
  17.7600         10
  17.8000         20
  17.8400         20
  17.8800         15
  17.9200         16
  17.9600         13
  18.0000         17
  18.0400         12
  18.0800         14
  18.1200         16
  18.1600         16
  18.2000         15
  18.2400         13
  18.2800         11
  18.3200         18
  18.3600         11
  18.4000         17
  18.4400         19
  18.4800         22
  18.5200         11
  18.5600         17
  18.6000         15
  18.6400         16
  18.6800         18
  18.7200         14
  18.7600         14
  18.8000         15
  18.8400         21
  18.8800         22
  18.9200         11
  18.9600         15
  19.0000         16
  19.0400         12
  19.0800         14
  19.1200         16
  19.1600         17
  19.2000         12
  19.2400         17
  19.2800         16
  19.3200         21
  19.3600         16
  19.4000         22
  19.4400         13
  19.4800         21
  19.5200         22
  19.5600         20
  19.6000         20
  19.6400         14
  19.6800         12
  19.7200         16
  19.7600         14
  19.8000         15
  19.8400         16
  19.8800         16
  19.9200         12
  19.9600         16
  20.0000         13
  20.0400         16
  20.0800         19
  20.1200         15
  20.1600         13
  20.2000         12
  20.2400         11
  20.2800         15
  20.3200         13
  20.3600         17
  20.4000         10
  20.4400         16
  20.4800         18
  20.5200         16
  20.5600         14
  20.6000         11
  20.6400         12
  20.6800         17
  20.7200         10
  20.7600         19
  20.8000         13
  20.8400         12
  20.8800         18
  20.9200         16
  20.9600         19
  21.0000         19
  21.0400         14
  21.0800         15
  21.1200         15
  21.1600          8
  21.2000         24
  21.2400         14
  21.2800         16
  21.3200          9
  21.3600         19
  21.4000         13
  21.4400         16
  21.4800          9
  21.5200         14
  21.5600         14
  21.6000         16
  21.6400         13
  21.6800         17
  21.7200         11
  21.7600         19
  21.8000         14
  21.8400         17
  21.8800         17
  21.9200         15
  21.9600         21
  22.0000         31
  22.0400         23
  22.0800         15
  22.1200          8
  22.1600         13
  22.2000         22
  22.2400         17
  22.2800         20
  22.3200         17
  22.3600         14
  22.4000         19
  22.4400         16
  22.4800         25
  22.5200         12
  22.5600         13
  22.6000         12
  22.6400         24
  22.6800         16
  22.7200         14
  22.7600         14
  22.8000         16
  22.8400         17
  22.8800         17
  22.9200         16
  22.9600         19
  23.0000         12