File: data/0812B_2th_all.uxd
; (content of file \\Mai-b11e5c0abfd\d8\User\55373\0851539\0901\0812B_2th_all.raw)
_FILEVERSION = 2
_SAMPLE =
_+SAMPLE =
_SITE = Taiwan
_USER = Administrator
_GONIOMETER_CODE = 20
_STAGE_CODE = 13
; Goniometer : D8 theta/2theta, stage : Unknown
_SAMPLE_CHANGER_CODE = 0
_ATTACHMENTS_CODE = 0
_GONIOMETER_RADIUS = 300
_FIXED_DIVSLIT = 0.6
_FIXED_SAMPLESLIT = 0
_FIXED_DETSLIT = 0.1
_MONOCHROMATOR = 0
; Incident beam monochromator : None
_THIN_FILM = N
_BETA_FILTER = N
_FIXED_ANTISLIT = 0.6
_ANALYZER_CODE = 0
; Received beam analyzer : None
_DATEMEASURED = "01-Sep-2021 12:12:13"
_WL_UNIT = A
_WL1 = 1.5406
_WL2 = 1.54439
_WL3 = 1.39222
_WLRATIO = 0.5
_ANODE = Cu

; Data for range 1
_DRIVE = COUPLED
_STEPTIME = 0.3
_STEPSIZE = 0.02
_STEPMODE = C
_START = 34
_THETA = 16.78
_2THETA = 34
_KHI = 0
_PHI = 8
_X = 0
_Y = 0
_Z = -0.161
_DETECTOR = 1
; Detector type : Scintillation counter
_HV = 662
_GAIN = 80
_LLD = 0.545
_ULD = 1.917
_DETECTORSLIT = out
_AUX1 = 0
_AUX2 = 0
_AUX3 = 0
_TIMESTARTED = 16
_TEMP_RATE = -1
_TEMP_DELAY = -1
_KV = 40
_MA = 40
_RANGE_WL = 1.5406
_3DPLANE = 0
_V4_COUNTERS_MASK = 1
_V4_DRIVES_MASK = 0
_V4_ENCODERS_MASK = 0
_2THETACOUNTS = 1
; 2THETA  Cnt1_D1
  34.0000          8
  34.3000          4
  34.6000          5
  34.9000          8
  35.2000          5
  35.5000          3
  35.8000          8
  36.1000          3
  36.4000          2
  36.7000          3
  37.0000          4
  37.3000          6
  37.6000          3
  37.9000          3
  38.2000         32
  38.5000          9
  38.8000          2
  39.1000         10
  39.4000          3
  39.7000          6
  40.0000          5
  40.3000          7
  40.6000          6
  40.9000          4
  41.2000          6
  41.5000          5
  41.8000          5
  42.1000          5
  42.4000          2
  42.7000          0
  43.0000          5
  43.3000          6
  43.6000          6
  43.9000          4
  44.2000          6
  44.5000         13
  44.8000          8
  45.1000          4
  45.4000          2
  45.7000          4
  46.0000          5
  46.3000          6
  46.6000          5
  46.9000          2
  47.2000          4
  47.5000          4
  47.8000          4
  48.1000          6
  48.4000          3
  48.7000          1
  49.0000          3
  49.3000          2
  49.6000          3
  49.9000          3
  50.2000          6
  50.5000          8
  50.8000          6
  51.1000          3
  51.4000          6
  51.7000          6
  52.0000          1
  52.3000          4
  52.6000          2
  52.9000          5
  53.2000          3
  53.5000          2
  53.8000          6
  54.1000          7
  54.4000          4
  54.7000          4
  55.0000          5
  55.3000          3
  55.6000          3
  55.9000          3
  56.2000          6
  56.5000          3
  56.8000          2
  57.1000          3
  57.4000          2
  57.7000          5
  58.0000          2
  58.3000          2
  58.6000          1
  58.9000          5
  59.2000          2
  59.5000          4
  59.8000          3
  60.1000          3
  60.4000          5
  60.7000          3
  61.0000          5
  61.3000          3
  61.6000          4
  61.9000          1
  62.2000          1
  62.5000          5
  62.8000          4
  63.1000          1
  63.4000          2
  63.7000          1
  64.0000          8
  64.3000          3
  64.6000         10
  64.9000          7
  65.2000         11
  65.5000          1
  65.8000          1
  66.1000          4
  66.4000          3
  66.7000          5
  67.0000          2
  67.3000          6
  67.6000          4
  67.9000          3
  68.2000          5
  68.5000          5
  68.8000          3
  69.1000          3
  69.4000          3
  69.7000          6
  70.0000          1
  70.3000          2
  70.6000          2
  70.9000          3
  71.2000          2
  71.5000          0
  71.8000          2
  72.1000          2
  72.4000          4
  72.7000          2
  73.0000          4
  73.3000          3
  73.6000          5
  73.9000          3
  74.2000          4
  74.5000          7
  74.8000          2
  75.1000          0
  75.4000          0
  75.7000          5
  76.0000          3
  76.3000          2
  76.6000          1
  76.9000          4
  77.2000          2
  77.5000          7
  77.8000          8
  78.1000          3
  78.4000          3
  78.7000          3
  79.0000          2
  79.3000          4
  79.6000          2
  79.9000          4
  80.2000          1
  80.5000          4
  80.8000          6
  81.1000          2
  81.4000          4
  81.7000          5
  82.0000          1
  82.3000          2
  82.6000          1
  82.9000          5
  83.2000          2
  83.5000          2
  83.8000          7
  84.1000          3
  84.4000          4
  84.7000          4
  85.0000          3
  85.3000          1
  85.6000          7
  85.9000          2
  86.2000          1
  86.5000          6
  86.8000          7
  87.1000          1
  87.4000          0
  87.7000          2
  88.0000          2
  88.3000          2
  88.6000          6
  88.9000          4
  89.2000          3
  89.5000          6
  89.8000          3
  90.1000          4
  90.4000          5
  90.7000          4
  91.0000          2
  91.3000          3
  91.6000          1
  91.9000          5
  92.2000          7
  92.5000          3
  92.8000          2
  93.1000          5
  93.4000          4
  93.7000          2
  94.0000          2
  94.3000          2
  94.6000          6
  94.9000          0
  95.2000          1
  95.5000          7
  95.8000          2
  96.1000          2
  96.4000          2
  96.7000          5
  97.0000          4
  97.3000          2
  97.6000          1
  97.9000          3
  98.2000          7
  98.5000          2
  98.8000          5
  99.1000          3
  99.4000          4
  99.7000          4
 100.0000          3
 100.3000          5
 100.6000          5
 100.9000          4
 101.2000          2
 101.5000          2
 101.8000          5
 102.1000          2
 102.4000          4
 102.7000         16
 103.0000          4
 103.3000          2
 103.6000          4
 103.9000          6
 104.2000          5
 104.5000          4
 104.8000          2
 105.1000          5
 105.4000          1
 105.7000          3
 106.0000          4
 106.3000          6
 106.6000          5
 106.9000          4
 107.2000          2
 107.5000          8
 107.8000          3
 108.1000          1
 108.4000          5
 108.7000          2
 109.0000          4
 109.3000          8
 109.6000          8
 109.9000          6
 110.2000          3
 110.5000          8
 110.8000          5
 111.1000          6
 111.4000          8
 111.7000          9
 112.0000          8
 112.3000          4
 112.6000          2
 112.9000         10
 113.2000         27
 113.5000         20
 113.8000         45
 114.1000         48
 114.4000         60
 114.7000         61
 115.0000         61
 115.3000         79
 115.6000         83
 115.9000         77
 116.2000        105
 116.5000        110
 116.8000        148
 117.1000        150
 117.4000        167
 117.7000        226
 118.0000        282
 118.3000        453
 118.6000       1410
 118.9000       1552
 119.2000       5047
 119.5000     190091
 119.8000      11804
 120.1000      18733
 120.4000       1838
 120.7000        885
 121.0000        533
 121.3000        373
 121.6000        330
 121.9000        273
 122.0000        235